% 
% NORMALIZED DIFFERENTIAL COUNTS FOR PROTOSPHEROIDS
% log[S (Jy)]  -   log[dN/dS*S^2.5 (Jy^1.5/sr)], @ 0.325GHz, 1.4GHz
% 
  -9.00000         -4.126172         -4.323484
  -8.94000         -4.056456         -4.256316
  -8.88000         -3.987746         -4.188055
  -8.82000         -3.919971         -4.118658
  -8.76000         -3.853127         -4.048236
  -8.70000         -3.787066         -3.977002
  -8.64000         -3.721566         -3.905148
  -8.58000         -3.656178         -3.832975
  -8.52000         -3.590436         -3.760746
  -8.46000         -3.523929         -3.688739
  -8.40000         -3.456431         -3.617200
  -8.34000         -3.387761         -3.546416
  -8.28000         -3.318033         -3.476550
  -8.22000         -3.247345         -3.407810
  -8.16000         -3.175905         -3.340340
  -8.10000         -3.103974         -3.274189
  -8.04000         -3.031803         -3.209505
  -7.98000         -2.959679         -3.146194
  -7.92000         -2.887870         -3.084265
  -7.86000         -2.816635         -3.023633
  -7.80000         -2.746177         -2.964134
  -7.74000         -2.676763         -2.905683
  -7.68000         -2.608483         -2.848027
  -7.62000         -2.541502         -2.790990
  -7.56000         -2.475899         -2.734350
  -7.50000         -2.411660         -2.677877
  -7.44000         -2.348871         -2.621353
  -7.38000         -2.287379         -2.564575
  -7.32000         -2.227133         -2.507345
  -7.26000         -2.167997         -2.449498
  -7.20000         -2.109773         -2.390924
  -7.14000         -2.052322         -2.331467
  -7.08000         -1.995386         -2.271125
  -7.02000         -1.938766         -2.209847
  -6.96000         -1.882236         -2.147654
  -6.90000         -1.825588         -2.084637
  -6.84000         -1.768600         -2.020849
  -6.78000         -1.711118         -1.956482
  -6.72000         -1.652971         -1.891694
  -6.66000         -1.594037         -1.826702
  -6.60000         -1.534259         -1.761743
  -6.54000         -1.473530         -1.697096
  -6.48000         -1.411908         -1.633013
  -6.42000         -1.349397         -1.569797
  -6.36000         -1.286076         -1.507737
  -6.30000         -1.222087         -1.447057
  -6.24000         -1.157548         -1.388128
  -6.18000         -1.092683         -1.331064
  -6.12000         -1.027703         -1.276127
  -6.06000         -0.962857         -1.223475
  -6.00000         -0.898395         -1.173134
  -5.94000         -0.834640         -1.125323
  -5.88000         -0.771820         -1.079862
  -5.82000         -0.710247         -1.036763
  -5.76000         -0.650191         -0.995880
  -5.70000         -0.591836         -0.956935
  -5.64000         -0.535532         -0.919775
  -5.58000         -0.481322         -0.883941
  -5.52000         -0.429415         -0.849081
  -5.46000         -0.379897         -0.814734
  -5.40000         -0.332717         -0.780405
  -5.34000         -0.288006         -0.745535
  -5.28000         -0.245504         -0.709624
  -5.22000         -0.205128         -0.672092
  -5.16000         -0.166642         -0.632404
  -5.10000         -0.129700         -0.590171
  -5.04000         -0.094032         -0.544767
  -4.98000         -0.059147         -0.496082
  -4.92000         -0.024611         -0.443798
  -4.86000          0.010085         -0.387858
  -4.80000          0.045442         -0.328504
  -4.74000          0.082079         -0.265842
  -4.68000          0.120437         -0.200644
  -4.62000          0.161084         -0.133626
  -4.56000          0.204488         -0.065869
  -4.50000          0.250928          0.001341
  -4.44000          0.300927          0.066334
  -4.38000          0.354408          0.127547
  -4.32000          0.411499          0.182991
  -4.26000          0.472017          0.230699
  -4.20000          0.535472          0.269059
  -4.14000          0.601415          0.295325
  -4.08000          0.668820          0.308302
  -4.02000          0.736620          0.305326
  -3.96000          0.803428          0.283865
  -3.90000          0.867761          0.241809
  -3.84000          0.927591          0.174304
  -3.78000          0.981374          0.079714
  -3.72000          1.026978         -0.046216
  -3.66000          1.062417         -0.206475
  -3.60000          1.086125         -0.402075
  -3.54000          1.095035         -0.636920
  -3.48000          1.087828         -0.908602
  -3.42000          1.061257         -1.217774
  -3.36000          1.012222         -1.563610
  -3.30000          0.938289         -1.944753
  -3.24000          0.834040         -2.364838
  -3.18000          0.698264         -2.822916
  -3.12000          0.527035         -3.321508
  -3.06000          0.318257         -3.860384
  -3.00000          0.072202         -4.436511
  -2.94000         -0.213741         -5.050139
  -2.88000         -0.536091         -5.697767
  -2.82000         -0.895265         -6.382884
  -2.76000         -1.291134         -7.112194
  -2.70000         -1.723271         -7.894452
  -2.64000         -2.195679         -8.747918
  -2.58000         -2.706552         -9.682788
  -2.52000         -3.257195        -10.717217
  -2.46000         -3.846823        -11.866050
  -2.40000         -4.473434        -13.138254
  -2.34000         -5.140300        -14.555328
  -2.28000         -5.847757        -16.117921
  -2.22000         -6.603832        -17.830961
  -2.16000         -7.419084        -19.268021
  -2.10000         -8.304490        -19.414588
  -2.04000         -9.281256        -19.307540
  -1.98000        -10.358614        -19.199179
  -1.92000        -11.554725        -19.093597
  -1.86000        -12.883052        -18.989294
  -1.80000        -14.350276        -18.885202
  -1.74000        -15.976358        -18.783425
  -1.68000        -17.717989        -18.680816
  -1.62000        -18.658285        -18.580102
  -1.56000        -18.598858        -18.481159
  -1.50000        -18.491235        -18.382393
  -1.44000        -18.385235        -18.284845
  -1.38000        -18.279787        -18.186401
  -1.32000        -18.175116        -18.089120
  -1.26000        -18.072350        -17.992948
  -1.20000        -17.969942        -17.895885
  -1.14000        -17.868566        -17.799898
  -1.08000        -17.768344        -17.703990
  -1.02000        -17.669006        -17.609096
  -0.96000        -17.570496        -17.513334
  -0.90000        -17.471941        -17.418556
  -0.84000        -17.374570        -17.324195
  -0.78000        -17.277319        -17.229876
  -0.72000        -17.181171        -17.135600
  -0.66000        -17.084140        -17.041365
  -0.60000        -16.988173        -16.948041
  -0.54000        -16.892667        -16.856737
  -0.48000        -16.797228        -16.766737
  -0.42000        -16.701857        -16.676737
  -0.36000        -16.606917        -16.586737
  -0.30000        -16.512209        -16.496737
  -0.24000        -16.417911        -16.406737
  -0.18000        -16.324360        -16.316737
  -0.12000        -16.230313        -16.226737
  -0.06000        -16.136910        -16.136737
   0.00000        -16.046737        -16.046737
   0.06000        -15.956737        -15.956737
   0.12000        -15.866737        -15.866737
   0.18000        -15.776737        -15.776737
   0.24000        -15.686737        -15.686737
   0.30000        -15.596737        -15.596737
   0.36000        -15.506737        -15.506737
   0.42000        -15.416737        -15.416737
   0.48000        -15.326737        -15.326737
   0.54000        -15.236737        -15.236737
   0.60000        -15.146737        -15.146737
   0.66000        -15.056737        -15.056737
   0.72000        -14.966737        -14.966737
   0.78000        -14.876737        -14.876737
   0.84000        -14.786737        -14.786737
   0.90000        -14.696737        -14.696737
   0.96000        -14.606737        -14.606737
   1.02000        -14.516737        -14.516737
   1.08000        -14.426737        -14.426737
   1.14000        -14.336737        -14.336737
   1.20000        -14.246737        -14.246737
   1.26000        -14.156737        -14.156737
   1.32000        -14.066737        -14.066737
   1.38000        -13.976737        -13.976737
   1.44000        -13.886737        -13.886737
   1.50000        -13.796737        -13.796737
   1.56000        -13.706737        -13.706737
   1.62000        -13.616737        -13.616737
   1.68000        -13.526737        -13.526737
   1.74000        -13.436737        -13.436737
   1.80000        -13.346737        -13.346737
   1.86000        -13.256737        -13.256737
   1.92000        -13.166737        -13.166737
   1.98000        -13.076737        -13.076737
   2.04000        -12.986737        -12.986737
   2.10000        -12.896737        -12.896737
   2.16000        -12.806737        -12.806737
   2.22000        -12.716737        -12.716737
   2.28000        -12.626737        -12.626737
   2.34000        -12.536737        -12.536737
   2.40000        -12.446737        -12.446737
   2.46000        -12.356737        -12.356737
   2.52000        -12.266737        -12.266737
   2.58000        -12.176737        -12.176737
   2.64000        -12.086737        -12.086737
   2.70000        -11.996737        -11.996737
   2.76000        -11.906737        -11.906737
   2.82000        -11.816737        -11.816737
   2.88000        -11.726737        -11.726737
   2.94000        -11.636737        -11.636737
   3.00000        -11.546737        -11.546737